; NO DETECTION
; XMM-OM, W2 filter, lambda = 2120 A, width_lambda= 750 A, m_k = 0.07, m_lambda = 0.0728, exptime = 4634 s, fo = 5.71E-15 erg/s/cm^2/A/cps, PSF = 1.98"
; 1. Radius (")
; 2. Integrated Count Rate
; 3. Count Rate Error
; 4. Flux (erg/s/cm^2)
; 5. Flux Error
; 6. Luminosity (ers/s)
; 7. Luminosity Error
; 8. SFR (Msun / year)
; 9. SFR Error

      1.98000   0.00166567  0.000599538  2.29983e-14  8.27794e-15   3.1402950e+42   1.1303103e+42      0.31067986      0.11182537
      3.96000   0.00507032   0.00104602  7.00069e-14  1.44426e-14   9.5590896e+42   1.9720629e+42      0.94571264      0.19510276
      5.94000   0.00899416   0.00139316  1.24184e-13  1.92357e-14   1.6956711e+43   2.6265357e+42       1.6775840      0.25985194
      7.92000    0.0149658   0.00179710  2.06635e-13  2.48129e-14   2.8215029e+43   3.3880725e+42       2.7914070      0.33519332
      9.90000    0.0231103   0.00223319  3.19089e-13  3.08340e-14   4.3569972e+43   4.2102329e+42       4.3105227      0.41653239
      11.8800    0.0348509   0.00274239  4.81193e-13  3.78647e-14   6.5704495e+43   5.1702319e+42       6.5003650      0.51150830
